Name                    GENKAI-2
ReactorType             PWR
ThermalCap[MW_t]        1650
Distance[km]            755
Year    ElecSupp[GW.h]  RefUnitPow[MW]  TimeOnLine[h]   OpFac[%]    EnergAvFac-An[%]    EnergAvFac-Cu[%]    LF-An[%]    LF-Cu[%]
1980    1628.700        529             4110            -           -                   -                   -           -
1981    4140.300        529             7953            100.0       100.0               100.0               100.3       100.3
1982    3598.100        529             6931            79.10       77.40               87.10               77.60       87.40
1983    3671.700        529             7056            80.60       79.00               84.20               79.20       84.40
1984    3803.530        529             7359            83.80       81.60               83.50               81.80       83.70
1985    3857.540        529             7423            84.70       82.90               83.40               83.20       83.60
1986    4631.670        529             8760            100.0       99.50               86.20               100.0       86.50
1987    3874.400        529             7426            84.80       83.30               85.70               83.60       86.00
1988    3458.430        529             6630            75.50       74.20               84.20               74.40       84.60
1989    3241.410        529             6230            71.10       69.80               82.60               70.00       82.90
1990    4654.780        529             8760            100.0       100.0               84.40               100.4       84.70
1991    3732.440        529             7141            81.50       80.20               84.00               80.50       84.30
1992    3480.560        529             6638            75.60       74.50               83.20               74.90       83.50
1993    3722.290        529             7007            80.00       79.90               82.90               80.30       83.20
1994    4013.480        529             7561            86.30       86.20               83.20               86.60       83.50
1995    3784.070        529             7225            82.50       81.30               83.00               81.70       83.40
1996    3644.710        529             6991            79.60       78.10               82.70               78.40       83.00
1997    3448.320        529             6541            74.70       74.10               82.20               74.40       82.50
1998    3701.360        529             6978            79.70       79.60               82.00               79.90       82.40
1999    4347.940        529             8186            93.40       93.40               82.70               93.80       83.00
2000    3473.330        529             6541            74.50       74.40               82.20               74.80       82.60
2001    2216.370        529             4177            47.70       47.70               80.60               47.80       80.90
2002    4107.460        529             7598            86.70       86.70               80.90               88.60       81.30
2003    4490.520        529             8209            93.70       93.70               81.40               96.90       82.00
2004    3848.580        529             7052            80.30       80.20               81.40               82.80       82.00
2005    3776.210        529             6952            79.40       78.70               81.30               81.50       82.00
2006    4166.470        529             7609            86.90       86.80               81.50               89.90       82.30
2007    3327.290        529             6153            70.20       69.70               81.00               71.80       81.90
2008    3340.480        529             6180            70.40       69.60               80.60               71.90       81.50
2009    3594.690        529             6628            75.70       75.00               80.40               77.60       81.40
2010    4791.870        529             8760            100.0       100.0               81.10               103.4       82.10
2011    377.9500        529             690             7.900       7.800               78.70               8.200       79.70
2012    0.000000        529             0               0.000       0.000               76.20               0.000       77.20
2013    0.000000        529             0               0.000       0.000               73.90               0.000       74.80
2014    0.000000        529             0               0.000       0.000               71.70               0.000       72.60
2015    0.000000        529             0               0.000       0.000               69.60               0.000       70.50
2016    0.000000        529             0               0.000       0.000               67.70               0.000       68.60
2017    0.000000        529             0               0.000       0.000               65.90               0.000       66.70
2018    0.000000        529             0               0.000       0.000               64.10               0.000       64.90
2019    0.000000        529             0               0.000       0.000               63.70               0.000       64.50
