Name                    HANBIT-2
ReactorType             PWR
ThermalCap[MW_t]        2787
Distance[km]            986
Year    ElecSupp[GW.h]  RefUnitPow[MW]  TimeOnLine[h]   OpFac[%]    EnergAvFac-An[%]    EnergAvFac-Cu[%]    LF-An[%]    LF-Cu[%]
1987    4297.030        900             4826            98.1        98.2                98.2                97.0        97.0
1988    6280.880        900             7085            80.7        80.6                86.9                79.4        85.8
1989    5703.240        900             6446            73.6        73.6                81.7                72.3        80.5
1990    5964.510        900             6757            77.1        77.1                80.4                75.6        79.2
1991    6714.990        900             7433            84.8        84.8                81.4                85.2        80.5
1992    6434.620        900             7259            82.6        82.6                81.6                81.4        80.6
1993    6930.490        900             7506            85.7        85.7                82.2                87.9        81.8
1994    7132.860        890             7687            87.8        85.6                82.7                91.5        83.0
1995    6036.450        900             6696            76.4        74.2                81.7                76.6        82.3
1996    7656.100        900             8189            93.2        91.6                82.7                96.8        83.8
1997    6657.340        900             7453            85.1        81.2                82.6                84.4        83.9
1998    6010.350        900             6583            75.2        74.4                81.9                76.2        83.2
1999    6718.910        900             7301            83.3        82.1                81.9                85.2        83.4
2000    7144.060        900             7753            88.3        87.1                82.3                90.4        83.9
2001    7169.670        900             7726            88.2        87.1                82.6                90.9        84.4
2002    8194.230        900             8744            99.8        99.6                83.7                103.9       85.6
2003    7413.300        900             7931            90.5        89.6                84.1                94.0        86.1
2004    7242.940        900             7764            88.4        87.5                84.2                91.6        86.4
2005    7302.400        900             7881            90.0        88.6                84.5                92.6        86.8
2006    8195.680        939             8719            99.5        99.9                85.3                99.6        87.5
2007    7030.060        936             7523            85.9        84.4                85.3                85.7        87.4
2008    7472.860        947             7850            89.4        88.9                85.4                89.8        87.5
2009    8376.930        947             8760            100.0       99.9                86.1                101.0       88.1
2010    7461.450        947             7830            89.4        88.9                86.2                89.9        88.2
2011    7600.630        947             7988            91.2        90.4                86.4                91.6        88.3
2012    8383.440        958             8784            100.0       99.5                86.9                99.6        88.8
2013    6277.110        958             6509            74.3        73.2                86.4                74.8        88.2
2014    6661.490        977             6789            77.5        76.8                86.0                77.8        87.8
2015    7944.950        984             8060            92.0        93.9                86.3                92.2        88.0
2016    2953.950        988             2986            34.0        33.8                84.4                34.0        86.0
2017    6669.350        988             6820            77.8        76.9                84.2                77.1        85.7
2018    4643.920        988             4714            53.8        53.4                83.1                53.7        84.6
2019    7473.090        988             7657            87.4        86.2                83.2                86.4        84.7
2020    6603.940        988             6722            76.5        75.9                83.0                76.1        84.4
2021    8475.060        988             8700            99.3        97.8                83.4                97.9        84.8
